Name:  Light yellowish brown loam
Type:  Soils
Class:  Aridisol
Subclass:  Calciorthid
Particle Size:  see additional information
Sample No.:  84P3721
Owner:  JHU
Wavelength range:  All
Origin:  1.5 km NE of Minkher Gharbi, Syria via USDA Soil Conservation 
service.
Description:  The parent material is igneous-basaltic rock.  
Physiography: level to undulating upland plains.  Light yellowish brown 
loam, (typic xerollic).



Measurement:  Directional (10 degree) hemispherical reflectance
First Column:  X
Second Column:  Y
X Units:  Wavelength (micrometers)
Y Units:  Reflectance (percent)
First X Value:  14.0112
Last X Value:  0.4000
Number of X Values:  2844
Additional information:  84P3721a.txt
14.983    1.4163
14.940    1.3726
14.897    1.3396
14.854    1.3272
14.812    1.3384
14.770    1.3675
14.728    1.4041
14.686    1.4353
14.645    1.4522
14.603    1.4522
14.562    1.4392
14.521    1.4214
14.481    1.4058
14.441    1.3975
14.400    1.3963
14.361    1.3999
14.321    1.4053
14.281    1.4104
14.242    1.4153
14.203    1.4209
14.164    1.4270
14.126    1.4329
14.087    1.4370
14.049    1.4397
14.011    1.4434
13.973    1.4527
13.936    1.4732
13.899    1.5081
13.861    1.5569
13.824    1.6143
13.788    1.6717
13.751    1.7215
13.715    1.7583
13.679    1.7810
13.643    1.7918
13.607    1.7940
13.571    1.7905
13.536    1.7840
13.500    1.7744
13.465    1.7620
13.430    1.7473
13.396    1.7324
13.361    1.7197
13.327    1.7122
13.293    1.7124
13.259    1.7207
13.225    1.7356
13.191    1.7559
13.158    1.7781
13.124    1.8003
13.091    1.8216
13.058    1.8411
13.026    1.8582
12.993    1.8726
12.960    1.8828
12.928    1.8870
12.896    1.8816
12.864    1.8653
12.832    1.8374
12.800    1.8018
12.769    1.7639
12.737    1.7327
12.706    1.7151
12.675    1.7166
12.644    1.7366
12.614    1.7703
12.583    1.8079
12.552    1.8408
12.522    1.8618
12.492    1.8692
12.462    1.8655
12.432    1.8570
12.402    1.8513
12.373    1.8548
12.343    1.8716
12.314    1.9043
12.285    1.9524
12.256    2.0132
12.227    2.0820
12.198    2.1519
12.169    2.2153
12.141    2.2666
12.113    2.3018
12.084    2.3213
12.056    2.3303
12.028    2.3364
12.000    2.3479
11.973    2.3696
11.945    2.4031
11.918    2.4446
11.890    2.4893
11.863    2.5320
11.836    2.5694
11.809    2.6018
11.782    2.6319
11.755    2.6631
11.729    2.6985
11.702    2.7383
11.676    2.7800
11.650    2.8196
11.624    2.8496
11.598    2.8635
11.572    2.8552
11.546    2.8228
11.520    2.7683
11.495    2.7002
11.469    2.6304
11.444    2.5725
11.419    2.5376
11.394    2.5322
11.369    2.5540
11.344    2.5945
11.319    2.6402
11.294    2.6780
11.270    2.6970
11.245    2.6931
11.221    2.6675
11.197    2.6248
11.173    2.5725
11.149    2.5169
11.125    2.4634
11.101    2.4141
11.077    2.3699
11.054    2.3311
11.030    2.2964
11.007    2.2664
10.983    2.2417
10.960    2.2239
10.937    2.2134
10.914    2.2107
10.891    2.2146
10.868    2.2224
10.846    2.2300
10.823    2.2344
10.800    2.2332
10.778    2.2266
10.755    2.2183
10.733    2.2124
10.711    2.2139
10.689    2.2263
10.667    2.2500
10.645    2.2822
10.623    2.3176
10.602    2.3499
10.580    2.3738
10.558    2.3867
10.537    2.3884
10.516    2.3816
10.494    2.3709
10.473    2.3599
10.452    2.3523
10.431    2.3489
10.410    2.3491
10.389    2.3506
10.368    2.3516
10.348    2.3501
10.327    2.3467
10.306    2.3430
10.286    2.3408
10.266    2.3428
10.245    2.3494
10.225    2.3596
10.205    2.3721
10.185    2.3843
10.165    2.3953
10.145    2.4058
10.125    2.4180
10.106    2.4339
10.086    2.4544
10.066    2.4793
10.047    2.5056
10.027    2.5310
10.008    2.5530
 9.989    2.5718
 9.970    2.5896
 9.950    2.6096
 9.931    2.6343
 9.912    2.6638
 9.893    2.6958
 9.875    2.7271
 9.856    2.7525
 9.837    2.7705
 9.819    2.7818
 9.800    2.7888
 9.781    2.7974
 9.763    2.8106
 9.745    2.8311
 9.726    2.8601
 9.708    2.8970
 9.690    2.9387
 9.672    2.9832
 9.654    3.0274
 9.636    3.0672
 9.618    3.1001
 9.600    3.1236
 9.582    3.1365
 9.565    3.1399
 9.547    3.1358
 9.530    3.1279
 9.512    3.1201
 9.495    3.1140
 9.477    3.1118
 9.460    3.1128
 9.443    3.1162
 9.426    3.1204
 9.409    3.1231
 9.392    3.1231
 9.375    3.1187
 9.358    3.1084
 9.341    3.0916
 9.324    3.0679
 9.307    3.0376
 9.291    3.0007
 9.274    2.9585
 9.257    2.9126
 9.241    2.8655
 9.225    2.8208
 9.208    2.7820
 9.192    2.7522
 9.175    2.7322
 9.159    2.7205
 9.143    2.7134
 9.127    2.7058
 9.111    2.6946
 9.095    2.6785
 9.079    2.6585
 9.063    2.6392
 9.047    2.6243
 9.032    2.6172
 9.016    2.6192
 9.000    2.6287
 8.985    2.6443
 8.969    2.6629
 8.954    2.6831
 8.938    2.7041
 8.923    2.7244
 8.908    2.7437
 8.892    2.7617
 8.877    2.7769
 8.862    2.7898
 8.847    2.8010
 8.832    2.8120
 8.817    2.8240
 8.802    2.8384
 8.787    2.8550
 8.772    2.8726
 8.757    2.8884
 8.742    2.8989
 8.727    2.8999
 8.713    2.8887
 8.698    2.8650
 8.684    2.8323
 8.669    2.7969
 8.655    2.7681
 8.640    2.7547
 8.626    2.7634
 8.612    2.7952
 8.597    2.8465
 8.583    2.9097
 8.569    2.9761
 8.555    3.0381
 8.541    3.0925
 8.527    3.1397
 8.513    3.1829
 8.499    3.2249
 8.485    3.2673
 8.471    3.3108
 8.457    3.3535
 8.443    3.3950
 8.430    3.4358
 8.416    3.4793
 8.402    3.5281
 8.389    3.5855
 8.375    3.6538
 8.361    3.7337
 8.348    3.8250
 8.335    3.9275
 8.321    4.0418
 8.308    4.1677
 8.295    4.3052
 8.281    4.4512
 8.268    4.6021
 8.255    4.7510
 8.242    4.8919
 8.229    5.0178
 8.216    5.1245
 8.203    5.2092
 8.190    5.2715
 8.177    5.3125
 8.164    5.3359
 8.151    5.3452
 8.138    5.3452
 8.126    5.3399
 8.113    5.3335
 8.100    5.3284
 8.088    5.3269
 8.075    5.3296
 8.062    5.3369
 8.050    5.3484
 8.037    5.3630
 8.025    5.3787
 8.013    5.3943
 8.000    5.4082
 7.988    5.4204
 7.976    5.4319
 7.963    5.4426
 7.951    5.4544
 7.939    5.4675
 7.927    5.4822
 7.915    5.4985
 7.903    5.5159
 7.891    5.5349
 7.879    5.5557
 7.867    5.5786
 7.855    5.6038
 7.843    5.6316
 7.831    5.6611
 7.819    5.6929
 7.808    5.7271
 7.796    5.7644
 7.784    5.8054
 7.772    5.8506
 7.761    5.8984
 7.749    5.9478
 7.737    5.9954
 7.726    6.0381
 7.715    6.0733
 7.703    6.0991
 7.692    6.1155
 7.680    6.1243
 7.669    6.1265
 7.657    6.1248
 7.646    6.1196
 7.635    6.1128
 7.624    6.1040
 7.613    6.0955
 7.601    6.0889
 7.590    6.0867
 7.579    6.0920
 7.568    6.1060
 7.557    6.1277
 7.546    6.1536
 7.535    6.1782
 7.524    6.1958
 7.513    6.2017
 7.502    6.1951
 7.492    6.1773
 7.481    6.1528
 7.470    6.1270
 7.459    6.1038
 7.449    6.0847
 7.438    6.0686
 7.427    6.0523
 7.417    6.0305
 7.406    5.9993
 7.395    5.9551
 7.385    5.8958
 7.374    5.8215
 7.364    5.7332
 7.353    5.6323
 7.343    5.5195
 7.333    5.3962
 7.322    5.2642
 7.312    5.1243
 7.302    4.9795
 7.291    4.8330
 7.281    4.6880
 7.271    4.5471
 7.261    4.4114
 7.251    4.2798
 7.240    4.1499
 7.230    4.0188
 7.220    3.8843
 7.210    3.7456
 7.200    3.6060
 7.190    3.4700
 7.180    3.3443
 7.170    3.2371
 7.160    3.1553
 7.151    3.1021
 7.141    3.0772
 7.131    3.0750
 7.121    3.0847
 7.111    3.0943
 7.102    3.0916
 7.092    3.0681
 7.082    3.0213
 7.072    2.9546
 7.063    2.8757
 7.053    2.7947
 7.044    2.7195
 7.034    2.6548
 7.025    2.6004
 7.015    2.5542
 7.006    2.5120
 6.996    2.4715
 6.987    2.4324
 6.977    2.3975
 6.968    2.3696
 6.959    2.3508
 6.949    2.3411
 6.940    2.3367
 6.931    2.3328
 6.921    2.3228
 6.912    2.3028
 6.903    2.2713
 6.894    2.2307
 6.885    2.1878
 6.875    2.1504
 6.866    2.1258
 6.857    2.1174
 6.848    2.1240
 6.839    2.1404
 6.830    2.1592
 6.821    2.1746
 6.812    2.1839
 6.803    2.1895
 6.794    2.1958
 6.785    2.2083
 6.777    2.2290
 6.768    2.2566
 6.759    2.2862
 6.750    2.3113
 6.741    2.3269
 6.733    2.3316
 6.724    2.3267
 6.715    2.3167
 6.707    2.3064
 6.698    2.2986
 6.689    2.2947
 6.681    2.2932
 6.672    2.2942
 6.663    2.2979
 6.655    2.3086
 6.646    2.3296
 6.638    2.3645
 6.629    2.4131
 6.621    2.4710
 6.612    2.5313
 6.604    2.5877
 6.596    2.6384
 6.587    2.6878
 6.579    2.7439
 6.571    2.8154
 6.562    2.9075
 6.554    3.0154
 6.546    3.1292
 6.537    3.2339
 6.529    3.3191
 6.521    3.3833
 6.513    3.4375
 6.505    3.5020
 6.496    3.5979
 6.488    3.7378
 6.480    3.9190
 6.472    4.1206
 6.464    4.3106
 6.456    4.4568
 6.448    4.5386
 6.440    4.5552
 6.432    4.5244
 6.424    4.4771
 6.416    4.4409
 6.408    4.4331
 6.400    4.4529
 6.392    4.4851
 6.384    4.5076
 6.377    4.5020
 6.369    4.4612
 6.361    4.3892
 6.353    4.2986
 6.345    4.2048
 6.338    4.1184
 6.330    4.0442
 6.322    3.9807
 6.314    3.9224
 6.307    3.8648
 6.299    3.8052
 6.291    3.7434
 6.284    3.6802
 6.276    3.6172
 6.269    3.5545
 6.261    3.4912
 6.253    3.4243
 6.246    3.3516
 6.239    3.2703
 6.231    3.1790
 6.223    3.0777
 6.216    2.9688
 6.209    2.8560
 6.201    2.7439
 6.194    2.6384
 6.186    2.5440
 6.179    2.4632
 6.172    2.3960
 6.164    2.3408
 6.157    2.2942
 6.150    2.2532
 6.142    2.2161
 6.135    2.1831
 6.128    2.1560
 6.121    2.1362
 6.113    2.1238
 6.106    2.1155
 6.099    2.1067
 6.092    2.0925
 6.085    2.0701
 6.078    2.0415
 6.070    2.0142
 6.063    1.9981
 6.056    2.0029
 6.049    2.0342
 6.042    2.0904
 6.035    2.1633
 6.028    2.2412
 6.021    2.3137
 6.014    2.3736
 6.007    2.4197
 6.000    2.4561
 5.993    2.4881
 5.986    2.5210
 5.979    2.5574
 5.973    2.5989
 5.966    2.6477
 5.959    2.7078
 5.952    2.7859
 5.945    2.8877
 5.938    3.0154
 5.931    3.1633
 5.925    3.3206
 5.918    3.4729
 5.911    3.6104
 5.904    3.7315
 5.898    3.8460
 5.891    3.9700
 5.884    4.1189
 5.878    4.2993
 5.871    4.5047
 5.864    4.7166
 5.858    4.9131
 5.851    5.0774
 5.845    5.2063
 5.838    5.3108
 5.831    5.4104
 5.825    5.5247
 5.818    5.6621
 5.812    5.8159
 5.805    5.9673
 5.799    6.0923
 5.792    6.1753
 5.786    6.2153
 5.779    6.2268
 5.773    6.2346
 5.767    6.2632
 5.760    6.3274
 5.754    6.4268
 5.747    6.5501
 5.741    6.6787
 5.735    6.7980
 5.728    6.9020
 5.722    6.9910
 5.716    7.0760
 5.709    7.1640
 5.703    7.2610
 5.697    7.3630
 5.691    7.4620
 5.684    7.5450
 5.678    7.6020
 5.672    7.6290
 5.666    7.6280
 5.660    7.6110
 5.653    7.5910
 5.647    7.5800
 5.641    7.5840
 5.635    7.5970
 5.629    7.6020
 5.623    7.5720
 5.617    7.4770
 5.611    7.2970
 5.604    7.0220
 5.598    6.6660
 5.592    6.2625
 5.586    5.8611
 5.580    5.5198
 5.574    5.2925
 5.568    5.2178
 5.562    5.3128
 5.556    5.5679
 5.551    5.9522
 5.545    6.4182
 5.539    6.9150
 5.533    7.3960
 5.527    7.8270
 5.521    8.1890
 5.515    8.4770
 5.509    8.6970
 5.503    8.8590
 5.497    8.9800
 5.492    9.0760
 5.486    9.1640
 5.480    9.2600
 5.474    9.3750
 5.468    9.5140
 5.463    9.6700
 5.457    9.8290
 5.451    9.9710
 5.446   10.0810
 5.440   10.1510
 5.434   10.1840
 5.428   10.1940
 5.423   10.1950
 5.417   10.1990
 5.411   10.2100
 5.406   10.2230
 5.400   10.2270
 5.394   10.2110
 5.389   10.1700
 5.383   10.1030
 5.378   10.0180
 5.372    9.9260
 5.367    9.8410
 5.361    9.7790
 5.356    9.7510
 5.350    9.7620
 5.345    9.8120
 5.339    9.8950
 5.333   10.0000
 5.328   10.1100
 5.322   10.2160
 5.317   10.3080
 5.312   10.3850
 5.306   10.4540
 5.301   10.5210
 5.295   10.5960
 5.290   10.6880
 5.285   10.8020
 5.279   10.9360
 5.274   11.0900
 5.268   11.2580
 5.263   11.4350
 5.258   11.6160
 5.252   11.7930
 5.247   11.9630
 5.242   12.1240
 5.237   12.2740
 5.231   12.4120
 5.226   12.5410
 5.221   12.6650
 5.215   12.7860
 5.210   12.9050
 5.205   13.0240
 5.200   13.1380
 5.194   13.2440
 5.189   13.3370
 5.184   13.4120
 5.179   13.4680
 5.174   13.5050
 5.169   13.5270
 5.164   13.5420
 5.158   13.5560
 5.153   13.5790
 5.148   13.6140
 5.143   13.6640
 5.138   13.7270
 5.133   13.7950
 5.128   13.8610
 5.123   13.9180
 5.118   13.9620
 5.113   13.9910
 5.107   14.0080
 5.103   14.0170
 5.098   14.0230
 5.093   14.0290
 5.088   14.0400
 5.082   14.0560
 5.077   14.0790
 5.073   14.1090
 5.068   14.1470
 5.063   14.1890
 5.058   14.2350
 5.053   14.2780
 5.048   14.3170
 5.043   14.3490
 5.038   14.3750
 5.033   14.3970
 5.028   14.4200
 5.023   14.4470
 5.019   14.4810
 5.014   14.5220
 5.009   14.5700
 5.004   14.6250
 4.999   14.6870
 4.994   14.7590
 4.990   14.8430
 4.985   14.9410
 4.980   15.0530
 4.975   15.1770
 4.970   15.3090
 4.966   15.4420
 4.961   15.5720
 4.956   15.6940
 4.951   15.8060
 4.947   15.9090
 4.942   16.0040
 4.937   16.0930
 4.933   16.1820
 4.928   16.2740
 4.923   16.3730
 4.919   16.4840
 4.914   16.6090
 4.909   16.7460
 4.905   16.8930
 4.900   17.0450
 4.895   17.1950
 4.891   17.3380
 4.886   17.4690
 4.882   17.5860
 4.877   17.6880
 4.872   17.7770
 4.868   17.8570
 4.863   17.9300
 4.859   17.9990
 4.854   18.0650
 4.849   18.1300
 4.845   18.1920
 4.840   18.2510
 4.836   18.3080
 4.832   18.3630
 4.827   18.4170
 4.822   18.4710
 4.818   18.5230
 4.814   18.5740
 4.809   18.6230
 4.805   18.6680
 4.800   18.7110
 4.796   18.7510
 4.791   18.7890
 4.787   18.8270
 4.782   18.8640
 4.778   18.9030
 4.774   18.9410
 4.769   18.9810
 4.765   19.0210
 4.761   19.0620
 4.756   19.1040
 4.752   19.1470
 4.747   19.1890
 4.743   19.2290
 4.739   19.2660
 4.734   19.2960
 4.730   19.3190
 4.726   19.3330
 4.721   19.3360
 4.717   19.3260
 4.713   19.3040
 4.709   19.2700
 4.704   19.2270
 4.700   19.1810
 4.696   19.1370
 4.691   19.1010
 4.687   19.0780
 4.683   19.0720
 4.679   19.0840
 4.675   19.1130
 4.670   19.1590
 4.666   19.2190
 4.662   19.2900
 4.658   19.3710
 4.654   19.4610
 4.649   19.5590
 4.645   19.6650
 4.641   19.7770
 4.637   19.8930
 4.633   20.0120
 4.629   20.1300
 4.625   20.2450
 4.620   20.3540
 4.616   20.4560
 4.612   20.5510
 4.608   20.6380
 4.604   20.7180
 4.600   20.7910
 4.596   20.8580
 4.592   20.9190
 4.588   20.9760
 4.584   21.0310
 4.580   21.0880
 4.576   21.1460
 4.572   21.2080
 4.567   21.2730
 4.564   21.3400
 4.559   21.4050
 4.556   21.4670
 4.551   21.5230
 4.548   21.5710
 4.543   21.6120
 4.540   21.6470
 4.536   21.6760
 4.532   21.7020
 4.528   21.7260
 4.524   21.7500
 4.520   21.7740
 4.516   21.7990
 4.512   21.8250
 4.508   21.8530
 4.504   21.8820
 4.500   21.9120
 4.496   21.9440
 4.492   21.9780
 4.488   22.0150
 4.485   22.0570
 4.481   22.1010
 4.477   22.1510
 4.473   22.2030
 4.469   22.2610
 4.465   22.3220
 4.461   22.3880
 4.458   22.4570
 4.454   22.5300
 4.450   22.6030
 4.446   22.6740
 4.442   22.7430
 4.439   22.8070
 4.435   22.8680
 4.431   22.9280
 4.427   22.9890
 4.423   23.0530
 4.420   23.1210
 4.416   23.1940
 4.412   23.2680
 4.408   23.3440
 4.404   23.4180
 4.401   23.4870
 4.397   23.5510
 4.393   23.6100
 4.390   23.6640
 4.386   23.7170
 4.382   23.7710
 4.378   23.8270
 4.375   23.8860
 4.371   23.9460
 4.367   24.0050
 4.364   24.0600
 4.360   24.1090
 4.356   24.1500
 4.353   24.1840
 4.349   24.2140
 4.346   24.2420
 4.342   24.2700
 4.338   24.2980
 4.335   24.3250
 4.331   24.3500
 4.327   24.3690
 4.324   24.3810
 4.320   24.3850
 4.316   24.3820
 4.313   24.3720
 4.309   24.3570
 4.306   24.3390
 4.302   24.3180
 4.299   24.2910
 4.295   24.2580
 4.292   24.2180
 4.288   24.1720
 4.284   24.1290
 4.281   24.0980
 4.277   24.0950
 4.274   24.1300
 4.270   24.2060
 4.267   24.3170
 4.263   24.4470
 4.260   24.5720
 4.256   24.6730
 4.253   24.7330
 4.249   24.7510
 4.246   24.7350
 4.242   24.7040
 4.239   24.6780
 4.235   24.6790
 4.232   24.7160
 4.229   24.7970
 4.225   24.9150
 4.222   25.0640
 4.218   25.2320
 4.215   25.4060
 4.211   25.5750
 4.208   25.7290
 4.205   25.8610
 4.201   25.9690
 4.198   26.0520
 4.194   26.1130
 4.191   26.1570
 4.188   26.1900
 4.184   26.2160
 4.181   26.2390
 4.177   26.2600
 4.174   26.2780
 4.171   26.2940
 4.167   26.3050
 4.164   26.3130
 4.161   26.3190
 4.157   26.3240
 4.154   26.3300
 4.151   26.3380
 4.147   26.3480
 4.144   26.3580
 4.141   26.3680
 4.137   26.3750
 4.134   26.3770
 4.131   26.3720
 4.128   26.3620
 4.124   26.3460
 4.121   26.3240
 4.118   26.3000
 4.114   26.2740
 4.111   26.2480
 4.108   26.2230
 4.105   26.1970
 4.101   26.1690
 4.098   26.1360
 4.095   26.0960
 4.092   26.0470
 4.088   25.9900
 4.085   25.9240
 4.082   25.8510
 4.079   25.7710
 4.076   25.6860
 4.072   25.5940
 4.069   25.4930
 4.066   25.3800
 4.063   25.2500
 4.060   25.0950
 4.056   24.9080
 4.053   24.6830
 4.050   24.4150
 4.047   24.1030
 4.044   23.7480
 4.041   23.3580
 4.037   22.9380
 4.034   22.4970
 4.031   22.0410
 4.028   21.5730
 4.025   21.0920
 4.022   20.5950
 4.019   20.0740
 4.016   19.5230
 4.013   18.9370
 4.009   18.3160
 4.006   17.6660
 4.003   17.0020
 4.000   16.3430
 3.997   15.7130
 3.994   15.1370
 3.991   14.6350
 3.988   14.2210
 3.985   13.9040
 3.982   13.6830
 3.979   13.5520
 3.976   13.5010
 3.973   13.5250
 3.970   13.6170
 3.966   13.7760
 3.963   14.0040
 3.960   14.3050
 3.957   14.6780
 3.954   15.1210
 3.951   15.6190
 3.948   16.1520
 3.945   16.6920
 3.942   17.2090
 3.939   17.6750
 3.936   18.0710
 3.933   18.3920
 3.930   18.6390
 3.927   18.8290
 3.924   18.9780
 3.921   19.1030
 3.918   19.2180
 3.916   19.3280
 3.913   19.4350
 3.910   19.5380
 3.907   19.6320
 3.904   19.7150
 3.901   19.7870
 3.898   19.8460
 3.895   19.8950
 3.892   19.9340
 3.889   19.9670
 3.886   19.9960
 3.883   20.0200
 3.880   20.0430
 3.877   20.0630
 3.875   20.0830
 3.872   20.1040
 3.869   20.1260
 3.866   20.1530
 3.863   20.1840
 3.860   20.2200
 3.857   20.2640
 3.854   20.3160
 3.852   20.3770
 3.849   20.4510
 3.846   20.5410
 3.843   20.6490
 3.840   20.7790
 3.837   20.9290
 3.834   21.0990
 3.832   21.2820
 3.829   21.4720
 3.826   21.6620
 3.823   21.8460
 3.820   22.0210
 3.817   22.1890
 3.815   22.3510
 3.812   22.5140
 3.809   22.6830
 3.806   22.8620
 3.804   23.0500
 3.801   23.2430
 3.798   23.4330
 3.795   23.6110
 3.792   23.7670
 3.790   23.8960
 3.787   23.9970
 3.784   24.0700
 3.781   24.1200
 3.779   24.1530
 3.776   24.1750
 3.773   24.1880
 3.770   24.1940
 3.768   24.1940
 3.765   24.1850
 3.762   24.1680
 3.759   24.1420
 3.757   24.1060
 3.754   24.0640
 3.751   24.0190
 3.748   23.9750
 3.746   23.9340
 3.743   23.8980
 3.740   23.8640
 3.738   23.8310
 3.735   23.7960
 3.732   23.7550
 3.730   23.7080
 3.727   23.6530
 3.724   23.5940
 3.722   23.5320
 3.719   23.4700
 3.716   23.4100
 3.714   23.3500
 3.711   23.2920
 3.708   23.2340
 3.706   23.1750
 3.703   23.1150
 3.700   23.0550
 3.698   22.9950
 3.695   22.9350
 3.692   22.8740
 3.690   22.8120
 3.687   22.7480
 3.684   22.6810
 3.682   22.6110
 3.679   22.5400
 3.677   22.4690
 3.674   22.3990
 3.672   22.3310
 3.669   22.2660
 3.666   22.2030
 3.664   22.1420
